NAFC_Y2K_HEADER
12488022  46 55.73 -048 27.35 2017-11-12 11:04 0109 S4020 024 T Fishset # 24   1
12488022 001577  1.00 A 06 #PTCSM--------------            0 000 0000 0105 000 4
12488022 9 27 15 02 1023.5 006.5 006.5 03 02 25 05 04                          8
-- CHANNEL STATS -->
# span     scan =    293.000,  1879.000
# span     pres =      0.423,   105.637
# span     temp =     -1.237,     4.941
# span     cond =      2.576,     3.101
# span      sal =     27.822,    33.278
# span     sigt =     21.996,    26.758
-- END --
!! ACQUIRED USING > Software Version AquireV2 AF V1.2
cast   1 12 Nov 2017 11:27:11 samples 1 to 2219, avg = 4, stop = mag switch
-- CHANNEL STATS -->
# span     scan =      1.000,  2219.000
# span    depth =      0.067,   104.754
# span     temp =     -1.242,     4.942
# span     pres =      0.068,   105.658
# span     cond =     -0.000,     3.101
# span      sal =     -0.000,    33.278
# span      sig =     -0.029,    26.759
-- END --
-- HISTORY --> Thu Nov 30 11:30:56 2017
>READ # (DP) T C scan pres temp cond
>STABILIZE_RESTRICT USING= pres  5.0 5
>RESTRICT USING= pres 0.0 2000.0
>RESTRICT USING= cond 2.0 5.0
>RESTRICT USING= temp -1.9 22.0
>MEDIANFILTER pres 7 1
>MEDIANFILTER temp 7 1
>MEDIANFILTER cond 7 1
>SALINITY PRESSURE=pres CONDUCTIVITY=cond TEMPERATURE=temp RESULT=sal
>RESTRICT USING= sal 25.0 36.0
>MEDIANFILTER sal 7 1
>SIGMAT SALINITY=sal TEMPERATURE=temp RESULT=sigt
>MEDIANFILTER sigt 7 1
>HISTORY_ON
>WRITEFILE  .p???? scan pres temp cond sal sigt
-- END --
 scan     pres     temp     cond      sal     sigt 
-- DATA --
  306       0.595      4.8021     3.09009    32.24347    25.51196 
  307       0.636      4.8021     3.09015    32.24414    25.51245 
  308       0.698      4.8022     3.09022    32.24482    25.51306 
  309       0.751      4.8027     3.09052    32.24777    25.51526 
  310        0.76      4.8035     3.09079    32.25011    25.51709 
  311       0.768      4.8036     3.09084    32.25035    25.51721 
  312       0.839      4.8038     3.09084    32.25035    25.51721 
  313       1.005       4.804     3.09088    32.25035    25.51721 
  314       1.234       4.804     3.09092    32.25035    25.51721 
  315       1.479      4.8052     3.09097    32.25018    25.51697 
  316       1.731      4.8068     3.09109    32.25017    25.51672 
  317       1.948      4.8072     3.09116    32.25017    25.51672 
  318       2.078      4.8072     3.09116    32.25012    25.51672 
  319       2.199      4.8072     3.09117    32.24996     25.5166 
  320       2.425      4.8073     3.09117    32.24996     25.5166 
  321       2.713      4.8073     3.09116     32.2497    25.51636 
  322       2.969      4.8073     3.09116    32.24958    25.51624 
  323       3.184      4.8073     3.09117    32.24957    25.51624 
  324       3.365       4.808     3.09118      32.249    25.51575 
  325       3.501      4.8091     3.09121      32.249    25.51575 
  326        3.61      4.8099     3.09131      32.249    25.51575 
  327       3.776      4.8102     3.09139      32.249    25.51575 
  328       4.011      4.8102     3.09147    32.24981    25.51611 
  329       4.219      4.8102      3.0915    32.24982    25.51611 
  330       4.352      4.8102      3.0915    32.24982    25.51611 
  331        4.47      4.8102      3.0915    32.24982    25.51611 
  332       4.665      4.8102      3.0915    32.24982    25.51611 
  333       4.957      4.8102      3.0915    32.24982    25.51611 
  334       5.271      4.8102      3.0915    32.24982    25.51611 
  335       5.554      4.8102      3.0915    32.24982    25.51611 
  336       5.864      4.8102     3.09161    32.25049     25.5166 
  337       6.254      4.8102     3.09166    32.25066    25.51685 
  338       6.679      4.8102     3.09166    32.25087    25.51697 
  339        7.06      4.8102     3.09177    32.25087    25.51697 
  340       7.355      4.8106     3.09181     32.2513    25.51721 
  341       7.603      4.8112     3.09184    32.25166    25.51733 
  342       7.882      4.8121     3.09189    32.25174    25.51746 
  343        8.22      4.8136     3.09225    32.25184    25.51746 
  344       8.591       4.815     3.09232     32.2522    25.51746 
  345       8.955       4.816     3.09235    32.25222    25.51733 
  346       9.315      4.8164     3.09243    32.25222    25.51733 
  347       9.692      4.8166     3.09248    32.25222    25.51746 
  348      10.065      4.8167     3.09249    32.25222    25.51746 
  349      10.411      4.8169     3.09252    32.25237    25.51746 
  350      10.753      4.8169     3.09255    32.25239    25.51746 
  351      11.111      4.8169     3.09259    32.25266     25.5177 
  352      11.469      4.8169     3.09261     32.2527     25.5177 
  353      11.817       4.817     3.09265     32.2527     25.5177 
  354      12.179      4.8173     3.09271     32.2527     25.5177 
  355      12.568      4.8179     3.09276     32.2527    25.51758 
  356      12.965      4.8185     3.09279    32.25255    25.51733 
  357      13.341       4.819     3.09283    32.25255    25.51733 
  358      13.693      4.8195     3.09291    32.25255    25.51733 
  359      14.048       4.820     3.09297    32.25255    25.51733 
  360      14.427      4.8201       3.093    32.25261    25.51733 
  361      14.829      4.8201     3.09303    32.25275    25.51733 
  362      15.236      4.8201     3.09306    32.25282    25.51746 
  363      15.623      4.8201     3.09307    32.25289    25.51746 
  364      15.967      4.8202      3.0931    32.25289    25.51746 
  365      16.276      4.8205     3.09314     32.2529    25.51746 
  366      16.593      4.8209     3.09319     32.2529    25.51746 
  367      16.957      4.8213     3.09323     32.2529    25.51733 
  368      17.369      4.8217     3.09331     32.2529    25.51733 
  369      17.795      4.8217     3.09331    32.25282    25.51733 
  370      18.216      4.8217     3.09331    32.25282    25.51733 
  371      18.631      4.8217     3.09331    32.25285    25.51733 
  372      19.023      4.8213      3.0933    32.25285    25.51733 
  373      19.384      4.8205     3.09327    32.25285    25.51746 
  374      19.726      4.8198     3.09323    32.25289    25.51758 
  375      20.066      4.8188     3.09319    32.25323    25.51794 
  376      20.419      4.8179     3.09317    32.25327    25.51807 
  377      20.795      4.8178     3.09315    32.25327    25.51807 
  378      21.197      4.8177     3.09315    32.25327    25.51807 
  379      21.609      4.8177     3.09317    32.25329    25.51807 
  380      22.003      4.8177     3.09318    32.25329    25.51807 
  381      22.378      4.8177     3.09319    32.25329    25.51807 
  382      22.762      4.8177     3.09326    32.25329    25.51807 
  383      23.169      4.8192     3.09341    32.25321    25.51782 
  384      23.583      4.8212     3.09358     32.2532    25.51758 
  385      23.984      4.8225     3.09367     32.2532    25.51746 
  386      24.372      4.8227     3.09368     32.2532    25.51746 
  387      24.751      4.8227     3.09369    32.25309    25.51733 
  388      25.122      4.8231     3.09376    32.25308    25.51733 
  389       25.48      4.8241     3.09388    32.25293    25.51709 
  390      25.825       4.825     3.09395    32.25288    25.51697 
  391      26.159      4.8254     3.09398    32.25288    25.51697 
  392      26.489      4.8257     3.09402    32.25287    25.51685 
  393      26.834      4.8261     3.09406    32.25278    25.51672 
  394      27.207      4.8262     3.09408    32.25276    25.51672 
  395      27.588      4.8262      3.0941    32.25272    25.51672 
  396      27.958      4.8262      3.0941    32.25258     25.5166 
  397      28.316      4.8262      3.0941     32.2524    25.51648 
  398      28.673      4.8262      3.0941    32.25222    25.51636 
  399      29.028      4.8256     3.09405    32.25204    25.51624 
  400      29.379      4.8241     3.09388    32.25137    25.51624 
  401       29.73       4.821     3.09355     32.2511    25.51611 
  402      30.082      4.8171     3.09327    32.25078    25.51611 
  403      30.432      4.8135     3.09301    32.25039    25.51611 
  404      30.783      4.8076     3.09233    32.24951    25.51624 
  405      31.136      4.7973     3.09132    32.24881    25.51672 
  406      31.487      4.7866     3.09058    32.24866     25.5177 
  407       31.84      4.7783     3.08997    32.24847    25.51843 
  408      32.203      4.7679     3.08884    32.24847    25.51953 
  409      32.575      4.7507     3.08729    32.24866    25.52161 
  410      32.946      4.7309     3.08594    32.24847    25.52356 
  411      33.315      4.7147     3.08485    32.24638    25.52356 
  412      33.698      4.6989     3.08346    32.24847    25.52686 
  413      34.107      4.6715     3.08072    32.24847    25.52979 
  414       34.53       4.631     3.07728    32.24752    25.53333 
  415      34.934      4.5893     3.07417    32.24752    25.53772 
  416        35.3      4.5499     3.07074    32.24752    25.54175 
  417      35.648      4.5064     3.06711    32.24902    25.54749 
  418      35.997      4.4567     3.06328    32.25132    25.55444 
  419       36.34      4.4047     3.05943    32.25711    25.56445 
  420      36.675      4.3579     3.05641    32.25711    25.56921 
  421      37.026      4.3188     3.05361    32.25711    25.57312 
  422      37.417      4.2757     3.04952    32.25836    25.57849 
  423      37.857      4.1914     3.04038    32.26714    25.59387 
  424       38.33      4.0392     3.02667    32.26714    25.60901 
  425      38.798       3.859     3.01399    32.26714    25.62646 
  426      39.232       3.699     3.00268    32.27845    25.65051 
  427      39.634      3.5468      2.9901    32.28226    25.66772 
  428      40.022      3.3644     2.97455    32.28226    25.68433 
  429      40.403      3.1436     2.95678    32.28226    25.70374 
  430      40.773      2.9059     2.93775    32.28322    25.72485 
  431      41.136      2.6524     2.91582    32.28492    25.74707 
  432      41.507      2.3666     2.89164    32.28579    25.77026 
  433      41.891      2.0593     2.86751    32.29266    25.79883 
  434      42.284      1.7606     2.84511    32.31131    25.83496 
  435      42.689      1.4796     2.82525    32.35013    25.88501 
  436      43.112      1.2068     2.80775    32.41023    25.95068 
  437      43.548      0.9603     2.79354    32.48515    26.02576 
  438      43.984      0.7738     2.78244    32.53753    26.07874 
  439      44.408      0.6477     2.77328    32.55156    26.09705 
  440      44.819      0.5447     2.76576    32.56242    26.11145 
  441      45.228       0.434     2.75871    32.58749    26.13745 
  442      45.641      0.3138      2.7506    32.60881    26.16089 
  443      46.051      0.1946     2.74196     32.6221    26.17749 
  444      46.454      0.0887     2.73439    32.63522    26.19324 
  445      46.849     -0.0062     2.72746    32.64497    26.20557 
  446       47.24     -0.1129     2.71911    32.64853    26.21326 
  447      47.637     -0.2355     2.71048    32.66531     26.2323 
  448      48.046     -0.3435     2.70482    32.70586    26.26965 
  449      48.466     -0.4219     2.70008     32.7233    26.28699 
  450      48.899     -0.4987     2.69363    32.72687    26.29297 
  451      49.341     -0.5897     2.68672    32.72882     26.2981 
  452      49.777      -0.679      2.6803    32.73902    26.30969 
  453      50.203     -0.7574     2.67477    32.74935    26.32092 
  454      50.625      -0.834     2.66968    32.76363    26.33533 
  455      51.028     -0.9141     2.66535    32.79203    26.36108 
  456      51.389     -0.9797     2.66426    32.84863    26.40918 
  457      51.719     -1.0113     2.66421    32.87754    26.43359 
  458      52.044     -1.0183     2.66378    32.88036    26.43616 
  459      52.372     -1.0203     2.66337    32.88232    26.43774 
  460      52.699     -1.0251     2.66279    32.88256    26.43811 
  461      53.026     -1.0316     2.66265    32.88394    26.43945 
  462      53.351      -1.036     2.66252    32.88541     26.4408 
  463       53.68     -1.0412     2.66242    32.88692    26.44214 
  464       54.03      -1.045     2.66212    32.88692    26.44226 
  465      54.411     -1.0477     2.66198    32.88692    26.44238 
  466      54.827      -1.048     2.66173    32.88942    26.44446 
  467      55.269     -1.0543     2.65988    32.88942    26.44458 
  468      55.717     -1.0779     2.65848    32.89024    26.44604 
  469       56.15     -1.1005     2.65793    32.89194    26.44812 
  470      56.556     -1.1193     2.65736    32.90456    26.45898 
  471      56.939     -1.1372     2.65682    32.91662    26.46936 
  472      57.296     -1.1487     2.65682    32.92815      26.479 
  473      57.622     -1.1487     2.65677    32.92896    26.47974 
  474      57.918     -1.1496     2.65677    32.92904    26.47974 
  475      58.198     -1.1515     2.65682    32.93156    26.48193 
  476      58.477     -1.1519     2.65683    32.93197     26.4823 
  477      58.755     -1.1534     2.65687    32.93399    26.48389 
  478      59.027     -1.1538     2.65705    32.93672    26.48621 
  479      59.293     -1.1551     2.65706    32.93813     26.4873 
  480      59.563     -1.1554     2.65707    32.93843    26.48755 
  481      59.842     -1.1578     2.65712    32.94158    26.49023 
  482      60.124     -1.1621     2.65727    32.94818    26.49573 
  483      60.402     -1.1628     2.65764    32.95383    26.50037 
  484      60.677     -1.1629     2.65783    32.95636    26.50232 
  485      60.945     -1.1658     2.65795    32.96103    26.50623 
  486      61.209     -1.1658     2.65823    32.96469    26.50916 
  487       61.48     -1.1658     2.65846    32.96548    26.50989 
  488      61.767     -1.1658     2.65853     32.9657    26.51001 
  489      62.064     -1.1629     2.65856     32.9664     26.5105 
  490       62.36     -1.1624     2.65863     32.9667    26.51074 
  491      62.656     -1.1622     2.65871     32.9667    26.51074 
  492      62.958     -1.1622     2.65876     32.9667    26.51074 
  493      63.275     -1.1622     2.65876    32.96689    26.51086 
  494      63.605     -1.1624     2.65878    32.96699    26.51099 
  495      63.933     -1.1624     2.65884    32.96761    26.51147 
  496      64.253     -1.1642     2.65895     32.9709    26.51416 
  497      64.577     -1.1642       2.659    32.97138    26.51453 
  498      64.922     -1.1677     2.65904    32.97557    26.51807 
  499      65.285     -1.1685      2.6591    32.97705    26.51929 
  500      65.649     -1.1691     2.65913    32.97789    26.52002 
  501      66.003     -1.1691     2.65917    32.97822    26.52026 
  502      66.358     -1.1699     2.65943    32.98244    26.52368 
  503       66.73     -1.1699     2.65951     32.9833    26.52441 
  504      67.117     -1.1711     2.65954    32.98479    26.52563 
  505      67.502     -1.1711     2.65956    32.98483    26.52576 
  506      67.872     -1.1699       2.660    32.98929     26.5293 
  507      68.239     -1.1699     2.66075    32.99931    26.53735 
  508      68.626     -1.1663     2.66143    33.00411    26.54114 
  509      69.036     -1.1612     2.66184    33.00438    26.54126 
  510      69.451     -1.1601      2.6621     33.0062    26.54272 
  511      69.858     -1.1597     2.66242    33.00987    26.54565 
  512      70.262     -1.1584     2.66284    33.01392    26.54895 
  513       70.67     -1.1553     2.66322    33.01545    26.55005 
  514      71.072     -1.1537     2.66345    33.01658     26.5509 
  515      71.464     -1.1532      2.6636    33.01783    26.55188 
  516      71.856     -1.1516     2.66379    33.01842    26.55237 
  517      72.262     -1.1505     2.66404    33.02037    26.55383 
  518      72.699     -1.1505      2.6642    33.02229    26.55542 
  519      73.175     -1.1505     2.66424    33.02238    26.55554 
  520      73.672     -1.1505     2.66425    33.02254    26.55566 
  521      74.151     -1.1505     2.66431     33.0229    26.55591 
  522      74.584     -1.1505     2.66458    33.02633    26.55872 
  523      74.979     -1.1505     2.66503    33.03222    26.56348 
  524      75.371     -1.1507     2.66556    33.03943    26.56934 
  525      75.793     -1.1507     2.66604    33.04572    26.57446 
  526      76.245       -1.15     2.66636    33.04904    26.57715 
  527      76.705     -1.1488     2.66665     33.0514    26.57898 
  528      77.163     -1.1483     2.66726    33.05889    26.58508 
  529      77.631     -1.1483     2.66816    33.07088    26.59473 
  530      78.109     -1.1431     2.66906    33.07713    26.59961 
  531      78.577     -1.1379     2.66997    33.08352    26.60474 
  532      79.017     -1.1326     2.67107     33.0924    26.61169 
  533      79.442     -1.1262     2.67229    33.10172    26.61902 
  534      79.877     -1.1191     2.67336     33.1082    26.62415 
  535       80.33     -1.1134     2.67411    33.11186    26.62683 
  536      80.797     -1.1091     2.67474    33.11541    26.62964 
  537      81.274     -1.1054     2.67546    33.12085    26.63391 
  538      81.753     -1.1023     2.67624    33.12777     26.6394 
  539      82.224     -1.0987     2.67712    33.13549    26.64551 
  540      82.684     -1.0936     2.67816    33.14375     26.6521 
  541      83.136     -1.0886     2.67909    33.15062    26.65747 
  542       83.59      -1.085     2.67975    33.15536    26.66125 
  543      84.055     -1.0821      2.6803    33.15936    26.66431 
  544      84.529     -1.0794     2.68085    33.16358    26.66772 
  545      84.997     -1.0777     2.68144    33.16945    26.67236 
  546      85.449     -1.0771     2.68214    33.17805    26.67932 
  547      85.892     -1.0768     2.68285    33.18711    26.68665 
  548      86.342     -1.0762     2.68353    33.19544    26.69336 
  549      86.808     -1.0754     2.68412     33.2023    26.69897 
  550      87.282     -1.0751     2.68456    33.20767    26.70325 
  551      87.751     -1.0748     2.68513    33.21482    26.70911 
  552      88.207      -1.072     2.68624    33.22656    26.71851 
  553      88.654     -1.0656     2.68777    33.24004    26.72925 
  554      89.106     -1.0571     2.68928    33.25091    26.73767 
  555      89.568     -1.0484     2.69055    33.25828    26.74341 
  556      90.027      -1.041     2.69154    33.26328    26.74719 
  557      90.461     -1.0357     2.69224    33.26667    26.74976 
  558      90.856     -1.0325     2.69267    33.26731    26.75012 
  559      91.226       -1.03     2.69289    33.26735    26.75012 
  560      91.612     -1.0272     2.69303    33.26825    26.75061 
  561      92.031     -1.0255     2.69319    33.26825    26.75061 
  562      92.453     -1.0254     2.69329    33.26814    26.75061 
  563      92.857     -1.0253     2.69331    33.26814    26.75073 
  564      93.269     -1.0238      2.6934    33.26825    26.75073 
  565      93.709     -1.0226     2.69356    33.26833    26.75073 
  566      94.147     -1.0223     2.69368    33.26871    26.75098 
  567      94.543     -1.0221     2.69368    33.26917    26.75134 
  568      94.886     -1.0221     2.69376    33.26917    26.75134 
  569      95.201     -1.0219     2.69378    33.26944    26.75159 
  570      95.527     -1.0215     2.69384    33.26958    26.75171 
  571      95.879     -1.0211     2.69385    33.26962    26.75171 
  572      96.229      -1.021     2.69402    33.27021     26.7522 
  573      96.548     -1.0206     2.69404    33.27058    26.75244 
  574      96.853     -1.0204     2.69406    33.27072    26.75256 
  575      97.193       -1.02     2.69408    33.27108    26.75281 
  576      97.581       -1.02     2.69417    33.27119    26.75293 
  577      97.979       -1.02      2.6943    33.27184    26.75342 
  578      98.344     -1.0196     2.69435    33.27184    26.75342 
  579      98.662     -1.0191     2.69436    33.27184    26.75342 
